File: debug/Daniel.UXD
; C:\DIFFDAT1\Schumacher\BaTiO3_auf_SrTiO3\SB081024b_ref.raw(Diffrac Plus V1.01 file) converted by XCH V1.0
_FILEVERSION=2
_SAMPLE='BaTiO3 auf SrTiO3 SB081013a'
_SITE='J lich / Germany'
_USER='Administrator'
_SAMPLE_CHANGER_CODE=0
_ATTACHMENTS_CODE=0
_GONIOMETER_RADIUS=217.5
_FIXED_DIVSLIT=0.150000
_FIXED_SAMPLESLIT=1.000000
_FIXED_DETSLIT=1.000000
_MONOCHROMATOR=0
; None
_THIN_FILM='N'
_BETA_FILTER='N'
_FIXED_ANTISLIT=0.150000
_ANALYZER_CODE=0
; None
_DATEMEASURED='26-Feb-2009 09:41:55'
_WL_UNIT='A'
_WL1=1.540600
_WL2=1.544390
_WL3=1.392220
_WLRATIO=0.500000
_ANODE='Cu'
; (Data for Range number 1)
_DRIVE='THETA'
_STEPTIME=240
_STEPSIZE=0.010000
_STEPMODE='S'
_START=0.000000
_THETA=0.000000
_2THETA=0.000000
_KHI=0.000000
_PHI=0.000000
_X=0.000000
_Y=0.000000
_Z=0.000000
_DIVERGENCE=0.000000
_ANTISCATTER=0.000000
_DETECTOR=1
; S.C.
_HV=675.575
_GAIN=80
_LLD=0.700531
_ULD=1.906721
_DETECTORSLIT='unkn'
_AUX1=-0.890940
_AUX2=0.000000
_AUX3=9.000000
_TIMESTARTED=1.23564e+09
_TEMP_RATE=-1.000000
_TEMP_DELAY=-1.000000
_KV=40
_MA=40
_RANGE_WL=1.540600
_3DPLANE=0
_2THETACOUNTS
   0.0000 835258982
   0.0300 110183001
   0.0600 107462000
   0.0900  58464700
   0.1200  71185400
   0.1500  86679400
   0.1800 101303000
   0.2100 114140000
   0.2400 124523000
   0.2700 129854000
   0.3000 119459000
   0.3300  75698704
   0.3600  46040600
   0.3900  32565300
   0.4200  22307100
   0.4500  14924600
   0.4800   9763860
   0.5100   6306910
   0.5400   4107200
   0.5700   2780050
   0.6000   2032520
   0.6300   1625830
   0.6600   1398150
   0.6900   1250370
   0.7200   1123580
   0.7500    993048
   0.7800    856197
   0.8100    709955
   0.8400    571427
   0.8700    445714
   0.9000    340023
   0.9300    254457
   0.9600    191642
   0.9900    147737
   1.0200    117182
   1.0500     98068
   1.0800     85642
   1.1100     76698
   1.1400     69111
   1.1700     62298
   1.2000     54551
   1.2300     47516
   1.2600     40227
   1.2900     33219
   1.3200     27775
   1.3500     22343
   1.3800     18653
   1.4100     14947
   1.4400     12447
   1.4700     10889
   1.5000     10261
   1.5300      9497
   1.5600      9999
   1.5900     10344
   1.6200     10850
   1.6500     11579
   1.6800     12277
   1.7100     12634
   1.7400     12987
   1.7700     12795
   1.8000     12420
   1.8300     11740
   1.8600     10782
   1.8900      9979
   1.9200      9431
   1.9500      8574
   1.9800      8223
   2.0100      8184
   2.0400      8089
   2.0700      7955
   2.1000      7999
   2.1300      8369
   2.1600      8503
   2.1900      8321
   2.2200      8249
   2.2500      7997
   2.2800      7524
   2.3100      6831
   2.3400      6345
   2.3700      5734
   2.4000      5012
   2.4300      4670
   2.4600      4227
   2.4900      3980
   2.5200      3836
   2.5500      3728
   2.5800      3632
   2.6100      3577
   2.6400      3634
   2.6700      3469
   2.7000      3264
   2.7300      3121
   2.7600      2878
   2.7900      2633
   2.8200      2362
   2.8500      2077
   2.8800      1898
   2.9100      1683
   2.9400      1639
   2.9700      1459
   3.0000      1516
   3.0300      1448
   3.0600      1441
   3.0900      1331
   3.1200      1335
   3.1500      1466
   3.1800      1377
   3.2100      1355
   3.2400      1289
   3.2700      1278
   3.3000      1231
   3.3300      1160
   3.3600      1126
   3.3900      1054
   3.4200       992
   3.4500       930
   3.4800       993
   3.5100       956
   3.5400       896
   3.5700       994
   3.6000       987
   3.6300       976
   3.6600      1023
   3.6900      1016
   3.7200      1045
   3.7500       943
   3.7800       994
   3.8100       926
   3.8400       866
   3.8700       933
   3.9000       804
   3.9300       867
   3.9600       814
   3.9900       762
   4.0200       782
   4.0500       719
   4.0800       780
   4.1100       761
   4.1400       818
   4.1700       833
   4.2000       755
   4.2300       738
   4.2600       775
   4.2900       739
   4.3200       714
   4.3500       713
   4.3800       687
   4.4100       651
   4.4400       646
   4.4700       614
   4.5000       653
   4.5300       633
   4.5600       599
   4.5900       613
   4.6200       617
   4.6500       642
   4.6800       609
   4.7100       592
   4.7400       625
   4.7700       641
   4.8000       576
   4.8300       608
   4.8600       582
   4.8900       562
   4.9200       580
   4.9500       496
   4.9800       555
   5.0100       574
   5.0400       548
   5.0700       543
   5.1000       524
   5.1300       505
   5.1600       567
   5.1900       546
   5.2200       517
   5.2500       503
   5.2800       545
   5.3100       552
   5.3400       519
   5.3700       533
   5.4000       501
   5.4300       490
   5.4600       499
   5.4900       473
   5.5200       461
   5.5500       484
   5.5800       497
   5.6100       489
   5.6400       510
   5.6700       486
   5.7000       465
   5.7300       459
   5.7600       515
   5.7900       497
   5.8200       492
   5.8500       456
   5.8800       468
   5.9100       447
   5.9400       480
   5.9700       445
   6.0000       460