File: debug/P043_136C.uxd
; (content of file C:\DIFFDAT1\Josten\P043-temp\P043_136C.raw)
_FILEVERSION = 2
_SAMPLE = P043
_+SAMPLE =
_SITE = "Jülich / Germany"
_USER = Administrator
_GONIOMETER_CODE = 21
; Goniometer : D8 theta/theta, stage : Unknown
_SAMPLE_CHANGER_CODE = 0
_ATTACHMENTS_CODE = 0
_GONIOMETER_RADIUS = 217.5
_FIXED_DIVSLIT = 0.15
_FIXED_SAMPLESLIT = 1
_FIXED_DETSLIT = 1
_MONOCHROMATOR = 0
; Incident beam monochromator : None
_THIN_FILM = N
_BETA_FILTER = N
_FIXED_ANTISLIT = 0.15
_ANALYZER_CODE = 0
; Received beam analyzer : None
_WL_UNIT = A
_WL1 = 1.5406
_WL2 = 1.54439
_WL3 = 1.39222
_WLRATIO = 0.5
_ANODE = Cu

; Data for range 1
_DRIVE = COUPLED
_STEPTIME = 1.5
_STEPSIZE = 0.01
_STEPMODE = C
_START = 0.14
_THETA = 0.07
_2THETA = 0.14
_KHI = 0
_PHI = 0
_X = 0
_Y = 0
_Z = 0
_DETECTOR = 1
; Detector type : Scintillation counter
_HV = 675.6
_GAIN = 80
_LLD = 0.7005
_ULD = 1.907
_DETECTORSLIT = out
_AUX1 = -0.52106
_AUX2 = 0
_AUX3 = 0
_TIMESTARTED = 2
_TEMP_RATE = -1
_TEMP_DELAY = -1
_KV = 40
_MA = 40
_RANGE_WL = 1.5406
_3DPLANE = 0
_V4_COUNTERS_MASK = 1
_V4_DRIVES_MASK = 0
_V4_ENCODERS_MASK = 0
_COUNTS = 1
; Cnt1_D1
   113247
    74550
    54953
    43661
    36323
    30799
    26151
    21870
    18928
    16766
    16001
    15544
    15608
    15681
    14976
    13991
    11908
    10221
     8134
     6813
     5738
     4590
     3777
     3011
     2643
     2278
     1981
     1778
     1727
     1577
     1407
     1404
     1337
     1419
     1584
     1986
     3027
     6391
    12732
    14643
    11063
     7719
     5465
     3342
     1861
     1156
      780
      500
      345
      269
      207
      180
      155
      117
      131
      103
       98
       89
       90
       68
       79
       72
       60
       55
       54
       59
       46
       51
       52
       58
       61
       61
       43
       52
       43
       47
       40
       46
       47
       62
      116
      271
      491
      482
      360
      217
      149
       96
       52
       29
       29
       16
       24
       10
       10
       23
        8
       15
       13
        9
       15
       10
       10
       13
        6
       11
       10
        5
       12
        9
        6
        6
        3
        6
       12
       13
        7
        8
        7
       10
        4
        9
        8
        9
        7
       14
       18
       30
       16
       16
       20
        7
        6
        3
        4
        6
        4
        3
        3
        4
        5
        4
        5
        7
        2
        2
        3
        3
        3
        3
        3
        3
        1
        2
        4
        5
        1
        4
        2
        3
        1
        3
        2
        2
        1
        4
        1
        3
        2
        1
        4
        2
        3
        4
        0
        1
        3
        2
        3
        2
        2
        2
        2
        1
        0
        3
        2
        2
        1
        4
        1
        1
        0
        1