File: debug/reflectometer.UXD
; C:\DIFFDAT1\glavic\PLD\8214\TbMnO_3-2Th.raw(Diffrac Plus V1.01 file) converted by XCH V1.0
_FILEVERSION=2
_SAMPLE='TbMnO3 on YAlO3'
_SITE='J lich / Germany'
_USER='Administrator'
_SAMPLE_CHANGER_CODE=0
_ATTACHMENTS_CODE=0
_GONIOMETER_RADIUS=217.5
_FIXED_DIVSLIT=0.150000
_FIXED_SAMPLESLIT=1.000000
_FIXED_DETSLIT=1.000000
_MONOCHROMATOR=0
; None
_THIN_FILM='N'
_BETA_FILTER='N'
_FIXED_ANTISLIT=0.150000
_ANALYZER_CODE=0
; None
_DATEMEASURED='12-Nov-2008 16:29:07'
_WL_UNIT='A'
_WL1=1.540600
_WL2=1.544390
_WL3=1.392220
_WLRATIO=0.500000
_ANODE='Cu'
; (Data for Range number 1)
_DRIVE='THETA'
_STEPTIME=6.504550
_STEPSIZE=0.005000
_STEPMODE='C'
_START=0.000000
_THETA=0.000000
_2THETA=0.000000
_KHI=0.000000
_PHI=0.000000
_X=0.000000
_Y=0.000000
_Z=0.000000
_DIVERGENCE=0.000000
_ANTISCATTER=0.000000
_DETECTOR=1
; S.C.
_HV=675.575
_GAIN=80
_LLD=0.700531
_ULD=1.906721
_DETECTORSLIT='unkn'
_AUX1=-0.517280
_AUX2=-0.711940
_AUX3=0.058500
_TIMESTARTED=1.2265e+09
_TEMP_RATE=-1.000000
_TEMP_DELAY=-1.000000
_KV=40
_MA=40
_RANGE_WL=1.540600
_3DPLANE=0
_2THETACOUNTS
   0.0000   9872560
   0.0150   2894010
   0.0300   1065260
   0.0450   1434060
   0.0600   1846780
   0.0750   2282550
   0.0900   2700050
   0.1050   3097320
   0.1200   3481440
   0.1350   3858090
   0.1500   4211590
   0.1650   4540610
   0.1800   4864480
   0.1950   5142990
   0.2100   5410670
   0.2250   5650860
   0.2400   5856870
   0.2550   6019530
   0.2700   6137200
   0.2850   6179190
   0.3000   6142590
   0.3150   5964170
   0.3300   5559890
   0.3450   4827060
   0.3600   3775840
   0.3750   2721720
   0.3900   1918300
   0.4050   1422890
   0.4200   1103410
   0.4350    890633
   0.4500    730047
   0.4650    621641
   0.4800    502425
   0.4950    413037
   0.5100    367388
   0.5250    318354
   0.5400    260217
   0.5550    221694
   0.5700    204590
   0.5850    181719
   0.6000    149697
   0.6150    126849
   0.6300    119198
   0.6450    109931
   0.6600     92064
   0.6750     77058
   0.6900     70357
   0.7050     68316
   0.7200     60739
   0.7350     50015
   0.7500     42881
   0.7650     41308
   0.7800     40066
   0.7950     34390
   0.8100     28331
   0.8250     25117
   0.8400     24878
   0.8550     24068
   0.8700     20317
   0.8850     16788
   0.9000     15358
   0.9150     15374
   0.9300     14669
   0.9450     12527
   0.9600     10273
   0.9750      9434
   0.9900      9739
   1.0050      9317
   1.0200      7856
   1.0350      6468
   1.0500      6109
   1.0650      6418
   1.0800      6098
   1.0950      5062
   1.1100      4162
   1.1250      3990
   1.1400      4211
   1.1550      4064
   1.1700      3392
   1.1850      2788
   1.2000      2655
   1.2150      2738
   1.2300      2752
   1.2450      2322
   1.2600      1913
   1.2750      1758
   1.2900      1864
   1.3050      1913
   1.3200      1640
   1.3350      1308
   1.3500      1175
   1.3650      1298
   1.3800      1324
   1.3950      1190
   1.4100       879
   1.4250       864
   1.4400       885
   1.4550       933
   1.4700       795
   1.4850       633
   1.5000       586
   1.5150       675
   1.5300       712
   1.5450       595
   1.5600       483
   1.5750       428
   1.5900       471
   1.6050       488
   1.6200       474
   1.6350       383
   1.6500       354
   1.6650       333
   1.6800       364
   1.6950       343
   1.7100       288
   1.7250       272
   1.7400       235
   1.7550       288
   1.7700       276
   1.7850       239
   1.8000       183
   1.8150       217
   1.8300       200
   1.8450       217
   1.8600       192
   1.8750       166
   1.8900       162
   1.9050       173
   1.9200       158
   1.9350       141
   1.9500       145
   1.9650       120
   1.9800       146
   1.9950       116
   2.0100       124
   2.0250        96
   2.0400       107
   2.0550       118
   2.0700       119
   2.0850       105
   2.1000        95
   2.1150        89
   2.1300        71
   2.1450        89
   2.1600        92
   2.1750        88
   2.1900        73
   2.2050        78
   2.2200        78
   2.2350        77
   2.2500        78
   2.2650        66
   2.2800        62
   2.2950        76
   2.3100        83
   2.3250        52
   2.3400        49
   2.3550        62
   2.3700        58
   2.3850        59
   2.4000        58
   2.4150        47
   2.4300        46
   2.4450        22
   2.4600        41
   2.4750        53
   2.4900        38
   2.5050        38
   2.5200        37
   2.5350        47
   2.5500        48
   2.5650        42
   2.5800        42
   2.5950        39
   2.6100        39
   2.6250        28
   2.6400        29
   2.6550        25
   2.6700        26
   2.6850        32
   2.7000        37
   2.7150        36
   2.7300        24
   2.7450        35
   2.7600        35
   2.7750        27
   2.7900        38
   2.8050        26
   2.8200        16
   2.8350        28
   2.8500        26
   2.8650        30
   2.8800        22
   2.8950        20
   2.9100        20
   2.9250        22
   2.9400        19
   2.9550        19
   2.9700        16
   2.9850        13
   3.0000        23
   3.0150        11
   3.0300        17
   3.0450        12
   3.0600        24
   3.0750        14
   3.0900        17
   3.1050        25
   3.1200        17
   3.1350        12
   3.1500        20
   3.1650        13
   3.1800        18
   3.1950        16
   3.2100        20
   3.2250        15
   3.2400        10
   3.2550        16
   3.2700        12
   3.2850         7
   3.3000        19
   3.3150        16
   3.3300         9
   3.3450        10
   3.3600         6
   3.3750        18
   3.3900         6
   3.4050        10
   3.4200        13
   3.4350         9
   3.4500         9
   3.4650         4
   3.4800        17
   3.4950         9
   3.5100        12
   3.5250         8
   3.5400         5
   3.5550         8
   3.5700         8
   3.5850         7
   3.6000         9
   3.6150         6
   3.6300         5
   3.6450        11
   3.6600         5
   3.6750         6
   3.6900         7
   3.7050         7
   3.7200         9
   3.7350         5
   3.7500         3
   3.7650        11
   3.7800         9
   3.7950         4
   3.8100         2
   3.8250        11
   3.8400         9
   3.8550         9
   3.8700         7
   3.8850        11
   3.9000         9
   3.9150         6
   3.9300         5
   3.9450         8
   3.9600         5
   3.9750        13
   3.9900         6
   4.0000         7